Labels	quencher 1.5 mM		
Type	Time Scan	
Comment		
start(nm)	0.00	
stop(nm)	999.02340	
step(nm)	0.976563	
fixed/offset(nm)	 	
Xaxis	Time	
Yaxis	Counts	
0.00	0.000E+0	
0.976563	0.000E+0	
1.953125	2.000E+0	
2.929688	0.000E+0	
3.906250	0.000E+0	
4.882813	0.000E+0	
5.859375	0.000E+0	
6.835938	1.000E+0	
7.81250	1.000E+0	
8.789063	2.000E+0	
9.765625	1.000E+0	
10.742188	0.000E+0	
11.718750	0.000E+0	
12.695313	0.000E+0	
13.671875	0.000E+0	
14.648438	0.000E+0	
15.6250	0.000E+0	
16.601563	0.000E+0	
17.578125	2.000E+0	
18.554688	2.000E+0	
19.531250	1.000E+0	
20.507813	1.000E+0	
21.484375	0.000E+0	
22.460938	0.000E+0	
23.43750	1.000E+0	
24.414063	2.000E+0	
25.390625	0.000E+0	
26.367188	0.000E+0	
27.343750	0.000E+0	
28.320313	2.000E+0	
29.296875	2.000E+0	
30.273438	1.000E+0	
31.250	1.000E+0	
32.226563	1.000E+0	
33.203125	1.000E+0	
34.179688	1.000E+0	
35.156250	0.000E+0	
36.132813	0.000E+0	
37.109375	0.000E+0	
38.085938	1.000E+0	
39.06250	0.000E+0	
40.039063	0.000E+0	
41.015625	1.000E+0	
41.992188	0.000E+0	
42.968750	0.000E+0	
43.945313	0.000E+0	
44.921875	1.000E+0	
45.898438	0.000E+0	
46.8750	2.000E+0	
47.851563	1.000E+0	
48.828125	2.000E+0	
49.804688	0.000E+0	
50.781250	1.000E+0	
51.757813	0.000E+0	
52.734375	2.000E+0	
53.710938	1.000E+0	
54.68750	1.000E+0	
55.664063	2.000E+0	
56.640625	1.000E+0	
57.617188	2.000E+0	
58.593750	2.000E+0	
59.570313	1.000E+1	
60.546875	9.500E+1	
61.523438	5.350E+2	
62.50	1.364E+3	
63.476563	1.822E+3	
64.453125	2.000E+3	
65.429688	1.935E+3	
66.406250	1.814E+3	
67.382813	1.730E+3	
68.359375	1.660E+3	
69.335938	1.532E+3	
70.31250	1.414E+3	
71.289063	1.354E+3	
72.265625	1.284E+3	
73.242188	1.146E+3	
74.218750	1.119E+3	
75.195313	9.990E+2	
76.171875	9.830E+2	
77.148438	9.330E+2	
78.1250	9.050E+2	
79.101563	7.820E+2	
80.078125	7.950E+2	
81.054688	7.860E+2	
82.031250	7.670E+2	
83.007813	6.880E+2	
83.984375	6.710E+2	
84.960938	6.360E+2	
85.93750	6.540E+2	
86.914063	6.010E+2	
87.890625	5.790E+2	
88.867188	5.910E+2	
89.843750	5.520E+2	
90.820313	5.260E+2	
91.796875	5.680E+2	
92.773438	5.110E+2	
93.750	5.050E+2	
94.726563	5.030E+2	
95.703125	5.150E+2	
96.679688	4.770E+2	
97.656250	4.570E+2	
98.632813	4.710E+2	
99.609375	4.260E+2	
100.58590	4.720E+2	
101.56250	3.950E+2	
102.53910	3.980E+2	
103.51560	4.380E+2	
104.49220	4.220E+2	
105.46880	4.120E+2	
106.44530	4.360E+2	
107.42190	4.180E+2	
108.39840	3.960E+2	
109.3750	3.760E+2	
110.35160	4.110E+2	
111.32810	3.510E+2	
112.30470	4.100E+2	
113.28130	3.840E+2	
114.25780	3.250E+2	
115.23440	3.640E+2	
116.21090	3.490E+2	
117.18750	3.760E+2	
118.16410	3.560E+2	
119.14060	3.760E+2	
120.11720	3.260E+2	
121.09380	3.180E+2	
122.07030	3.310E+2	
123.04690	3.510E+2	
124.02340	3.410E+2	
125.0	2.830E+2	
125.97660	3.250E+2	
126.95310	3.060E+2	
127.92970	3.040E+2	
128.90630	3.430E+2	
129.88280	3.040E+2	
130.85940	3.330E+2	
131.83590	2.830E+2	
132.81250	3.290E+2	
133.78910	2.950E+2	
134.76560	2.990E+2	
135.74220	2.570E+2	
136.71880	2.810E+2	
137.69530	2.940E+2	
138.67190	2.720E+2	
139.64840	3.270E+2	
140.6250	2.970E+2	
141.60160	2.700E+2	
142.57810	2.670E+2	
143.55470	3.040E+2	
144.53130	2.590E+2	
145.50780	2.730E+2	
146.48440	2.890E+2	
147.46090	2.450E+2	
148.43750	2.670E+2	
149.41410	2.750E+2	
150.39060	2.580E+2	
151.36720	2.650E+2	
152.34380	2.680E+2	
153.32030	2.790E+2	
154.29690	2.750E+2	
155.27340	2.600E+2	
156.250	2.540E+2	
157.22660	2.400E+2	
158.20310	2.490E+2	
159.17970	2.520E+2	
160.15630	2.260E+2	
161.13280	2.440E+2	
162.10940	2.300E+2	
163.08590	2.410E+2	
164.06250	2.320E+2	
165.03910	2.440E+2	
166.01560	2.310E+2	
166.99220	2.420E+2	
167.96880	2.510E+2	
168.94530	2.460E+2	
169.92190	2.370E+2	
170.89840	2.130E+2	
171.8750	2.570E+2	
172.85160	2.200E+2	
173.82810	2.140E+2	
174.80470	2.310E+2	
175.78130	2.200E+2	
176.75780	2.270E+2	
177.73440	2.190E+2	
178.71090	2.140E+2	
179.68750	1.930E+2	
180.66410	2.100E+2	
181.64060	2.060E+2	
182.61720	2.180E+2	
183.59380	2.100E+2	
184.57030	2.010E+2	
185.54690	2.120E+2	
186.52340	1.950E+2	
187.50	2.380E+2	
188.47660	2.140E+2	
189.45310	2.080E+2	
190.42970	1.950E+2	
191.40630	1.760E+2	
192.38280	2.120E+2	
193.35940	1.880E+2	
194.33590	1.790E+2	
195.31250	2.210E+2	
196.28910	1.760E+2	
197.26560	1.840E+2	
198.24220	2.200E+2	
199.21880	2.040E+2	
200.19530	2.030E+2	
201.17190	2.030E+2	
202.14840	2.090E+2	
203.1250	1.750E+2	
204.10160	1.810E+2	
205.07810	1.770E+2	
206.05470	1.940E+2	
207.03130	1.950E+2	
208.00780	1.780E+2	
208.98440	2.080E+2	
209.96090	1.720E+2	
210.93750	1.630E+2	
211.91410	1.640E+2	
212.89060	1.710E+2	
213.86720	1.530E+2	
214.84380	1.830E+2	
215.82030	1.630E+2	
216.79690	1.730E+2	
217.77340	1.650E+2	
218.750	1.660E+2	
219.72660	1.720E+2	
220.70310	1.590E+2	
221.67970	1.690E+2	
222.65630	1.460E+2	
223.63280	1.600E+2	
224.60940	1.730E+2	
225.58590	1.560E+2	
226.56250	1.550E+2	
227.53910	1.460E+2	
228.51560	1.250E+2	
229.49220	1.460E+2	
230.46880	1.740E+2	
231.44530	1.480E+2	
232.42190	1.430E+2	
233.39840	1.510E+2	
234.3750	1.510E+2	
235.35160	1.450E+2	
236.32810	1.410E+2	
237.30470	1.460E+2	
238.28130	1.350E+2	
239.25780	1.330E+2	
240.23440	1.410E+2	
241.21090	1.440E+2	
242.18750	1.360E+2	
243.16410	1.340E+2	
244.14060	1.370E+2	
245.11720	1.410E+2	
246.09380	1.180E+2	
247.07030	1.230E+2	
248.04690	1.520E+2	
249.02340	1.330E+2	
250.0	1.360E+2	
250.97660	1.470E+2	
251.95310	1.260E+2	
252.92970	1.550E+2	
253.90630	1.010E+2	
254.88280	1.150E+2	
255.85940	1.400E+2	
256.83590	1.220E+2	
257.81250	1.250E+2	
258.78910	1.150E+2	
259.76560	1.510E+2	
260.74220	1.180E+2	
261.71880	1.400E+2	
262.69530	1.250E+2	
263.67190	1.320E+2	
264.64840	1.280E+2	
265.6250	1.140E+2	
266.60160	1.040E+2	
267.57810	1.240E+2	
268.55470	1.150E+2	
269.53130	1.070E+2	
270.50780	1.140E+2	
271.48440	1.090E+2	
272.46090	1.220E+2	
273.43750	1.250E+2	
274.41410	1.040E+2	
275.39060	8.700E+1	
276.36720	9.700E+1	
277.34380	1.170E+2	
278.32030	1.070E+2	
279.29690	1.040E+2	
280.27340	1.070E+2	
281.250	1.080E+2	
282.22660	1.170E+2	
283.20310	1.230E+2	
284.17970	1.090E+2	
285.15630	1.090E+2	
286.13280	9.800E+1	
287.10940	1.160E+2	
288.08590	1.090E+2	
289.06250	1.100E+2	
290.03910	9.000E+1	
291.01560	9.600E+1	
291.99220	1.150E+2	
292.96880	9.800E+1	
293.94530	1.020E+2	
294.92190	1.100E+2	
295.89840	1.250E+2	
296.8750	8.600E+1	
297.85160	9.500E+1	
298.82810	9.500E+1	
299.80470	8.800E+1	
300.78130	8.000E+1	
301.75780	1.030E+2	
302.73440	9.900E+1	
303.71090	1.050E+2	
304.68750	8.500E+1	
305.66410	9.400E+1	
306.64060	1.030E+2	
307.61720	9.300E+1	
308.59380	1.000E+2	
309.57030	8.700E+1	
310.54690	9.500E+1	
311.52340	9.500E+1	
312.50	9.000E+1	
313.47660	8.200E+1	
314.45310	8.900E+1	
315.42970	9.600E+1	
316.40630	7.400E+1	
317.38280	9.400E+1	
318.35940	7.100E+1	
319.33590	1.010E+2	
320.31250	8.900E+1	
321.28910	7.600E+1	
322.26560	6.800E+1	
323.24220	7.100E+1	
324.21880	8.000E+1	
325.19530	7.900E+1	
326.17190	8.900E+1	
327.14840	8.000E+1	
328.1250	6.400E+1	
329.10160	9.500E+1	
330.07810	8.300E+1	
331.05470	6.800E+1	
332.03130	6.700E+1	
333.00780	7.500E+1	
333.98440	9.600E+1	
334.96090	8.600E+1	
335.93750	8.000E+1	
336.91410	7.100E+1	
337.89060	7.600E+1	
338.86720	7.100E+1	
339.84380	6.700E+1	
340.82030	5.900E+1	
341.79690	6.400E+1	
342.77340	8.500E+1	
343.750	7.900E+1	
344.72660	7.300E+1	
345.70310	7.500E+1	
346.67970	6.400E+1	
347.65630	7.900E+1	
348.63280	6.200E+1	
349.60940	7.100E+1	
350.58590	7.300E+1	
351.56250	7.400E+1	
352.53910	5.500E+1	
353.51560	6.500E+1	
354.49220	7.300E+1	
355.46880	6.300E+1	
356.44530	6.300E+1	
357.42190	4.600E+1	
358.39840	4.600E+1	
359.3750	5.800E+1	
360.35160	6.900E+1	
361.32810	5.700E+1	
362.30470	5.600E+1	
363.28130	7.300E+1	
364.25780	6.700E+1	
365.23440	6.600E+1	
366.21090	6.700E+1	
367.18750	5.400E+1	
368.16410	5.300E+1	
369.14060	5.800E+1	
370.11720	6.500E+1	
371.09380	6.500E+1	
372.07030	6.300E+1	
373.04690	5.000E+1	
374.02340	6.000E+1	
375.0	5.200E+1	
375.97660	5.100E+1	
376.95310	5.600E+1	
377.92970	7.200E+1	
378.90630	7.100E+1	
379.88280	5.300E+1	
380.85940	5.000E+1	
381.83590	4.400E+1	
382.81250	5.400E+1	
383.78910	4.300E+1	
384.76560	5.100E+1	
385.74220	5.000E+1	
386.71880	4.600E+1	
387.69530	4.600E+1	
388.67190	5.600E+1	
389.64840	5.300E+1	
390.6250	6.000E+1	
391.60160	4.100E+1	
392.57810	4.900E+1	
393.55470	5.900E+1	
394.53130	5.500E+1	
395.50780	5.400E+1	
396.48440	4.800E+1	
397.46090	5.000E+1	
398.43750	5.500E+1	
399.41410	4.800E+1	
400.39060	4.700E+1	
401.36720	4.800E+1	
402.34380	5.200E+1	
403.32030	5.200E+1	
404.29690	5.100E+1	
405.27340	4.500E+1	
406.250	4.200E+1	
407.22660	5.000E+1	
408.20310	3.800E+1	
409.17970	5.000E+1	
410.15630	4.900E+1	
411.13280	5.000E+1	
412.10940	4.500E+1	
413.08590	5.600E+1	
414.06250	4.500E+1	
415.03910	4.700E+1	
416.01560	5.400E+1	
416.99220	5.000E+1	
417.96880	4.900E+1	
418.94530	3.800E+1	
419.92190	4.600E+1	
420.89840	4.600E+1	
421.8750	4.900E+1	
422.85160	4.500E+1	
423.82810	6.100E+1	
424.80470	4.700E+1	
425.78130	4.300E+1	
426.75780	4.100E+1	
427.73440	3.400E+1	
428.71090	4.300E+1	
429.68750	4.300E+1	
430.66410	4.300E+1	
431.64060	5.300E+1	
432.61720	3.900E+1	
433.59380	4.000E+1	
434.57030	3.500E+1	
435.54690	3.500E+1	
436.52340	3.500E+1	
437.50	3.200E+1	
438.47660	4.200E+1	
439.45310	3.500E+1	
440.42970	4.600E+1	
441.40630	4.100E+1	
442.38280	3.000E+1	
443.35940	3.500E+1	
444.33590	3.800E+1	
445.31250	3.000E+1	
446.28910	4.100E+1	
447.26560	5.000E+1	
448.24220	3.300E+1	
449.21880	3.300E+1	
450.19530	2.600E+1	
451.17190	2.900E+1	
452.14840	5.000E+1	
453.1250	3.400E+1	
454.10160	3.400E+1	
455.07810	3.500E+1	
456.05470	2.400E+1	
457.03130	3.800E+1	
458.00780	2.600E+1	
458.98440	4.500E+1	
459.96090	3.400E+1	
460.93750	3.200E+1	
461.91410	3.300E+1	
462.89060	3.400E+1	
463.86720	3.100E+1	
464.84380	2.900E+1	
465.82030	3.300E+1	
466.79690	3.700E+1	
467.77340	2.400E+1	
468.750	3.100E+1	
469.72660	2.800E+1	
470.70310	3.100E+1	
471.67970	3.600E+1	
472.65630	2.100E+1	
473.63280	3.000E+1	
474.60940	2.800E+1	
475.58590	3.400E+1	
476.56250	3.100E+1	
477.53910	3.700E+1	
478.51560	2.600E+1	
479.49220	3.200E+1	
480.46880	2.800E+1	
481.44530	2.400E+1	
482.42190	2.700E+1	
483.39840	3.100E+1	
484.3750	3.800E+1	
485.35160	2.000E+1	
486.32810	2.200E+1	
487.30470	3.500E+1	
488.28130	2.800E+1	
489.25780	2.800E+1	
490.23440	2.900E+1	
491.21090	3.100E+1	
492.18750	3.000E+1	
493.16410	2.500E+1	
494.14060	2.300E+1	
495.11720	2.600E+1	
496.09380	3.000E+1	
497.07030	2.000E+1	
498.04690	2.600E+1	
499.02340	2.700E+1	
500.0	3.600E+1	
500.97660	2.700E+1	
501.95310	2.300E+1	
502.92970	2.100E+1	
503.90630	2.600E+1	
504.88280	3.100E+1	
505.85940	2.300E+1	
506.83590	3.200E+1	
507.81250	2.300E+1	
508.78910	2.300E+1	
509.76560	1.800E+1	
510.74220	1.700E+1	
511.71880	2.200E+1	
512.69530	2.900E+1	
513.67190	2.500E+1	
514.64840	2.300E+1	
515.6250	2.100E+1	
516.60160	2.800E+1	
517.57810	3.000E+1	
518.55470	2.300E+1	
519.53130	2.000E+1	
520.50780	2.300E+1	
521.48440	2.400E+1	
522.46090	2.900E+1	
523.43750	1.700E+1	
524.41410	2.500E+1	
525.39060	2.400E+1	
526.36720	2.300E+1	
527.34380	2.100E+1	
528.32030	2.400E+1	
529.29690	2.600E+1	
530.27340	1.600E+1	
531.250	2.900E+1	
532.22660	2.500E+1	
533.20310	1.800E+1	
534.17970	2.700E+1	
535.15630	1.900E+1	
536.13280	1.800E+1	
537.10940	2.400E+1	
538.08590	2.400E+1	
539.06250	1.800E+1	
540.03910	1.600E+1	
541.01560	2.800E+1	
541.99220	1.600E+1	
542.96880	1.400E+1	
543.94530	1.800E+1	
544.92190	2.200E+1	
545.89840	2.100E+1	
546.8750	2.500E+1	
547.85160	2.700E+1	
548.82810	3.300E+1	
549.80470	2.000E+1	
550.78130	1.800E+1	
551.75780	1.900E+1	
552.73440	1.800E+1	
553.71090	1.900E+1	
554.68750	1.400E+1	
555.66410	2.100E+1	
556.64060	2.000E+1	
557.61720	1.900E+1	
558.59380	2.300E+1	
559.57030	1.800E+1	
560.54690	1.900E+1	
561.52340	1.100E+1	
562.50	1.800E+1	
563.47660	1.400E+1	
564.45310	2.000E+1	
565.42970	1.700E+1	
566.40630	1.700E+1	
567.38280	2.500E+1	
568.35940	2.200E+1	
569.33590	1.800E+1	
570.31250	2.300E+1	
571.28910	2.300E+1	
572.26560	1.500E+1	
573.24220	1.200E+1	
574.21880	1.800E+1	
575.19530	2.400E+1	
576.17190	1.600E+1	
577.14840	1.700E+1	
578.1250	1.300E+1	
579.10160	2.000E+1	
580.07810	1.700E+1	
581.05470	2.200E+1	
582.03130	2.300E+1	
583.00780	1.200E+1	
583.98440	1.900E+1	
584.96090	1.600E+1	
585.93750	1.300E+1	
586.91410	2.000E+1	
587.89060	1.400E+1	
588.86720	1.800E+1	
589.84380	1.700E+1	
590.82030	2.200E+1	
591.79690	1.300E+1	
592.77340	1.200E+1	
593.750	2.100E+1	
594.72660	1.800E+1	
595.70310	1.200E+1	
596.67970	1.400E+1	
597.65630	1.600E+1	
598.63280	1.900E+1	
599.60940	2.100E+1	
600.58590	1.600E+1	
601.56250	9.000E+0	
602.53910	1.300E+1	
603.51560	1.300E+1	
604.49220	1.700E+1	
605.46880	1.200E+1	
606.44530	1.900E+1	
607.42190	1.500E+1	
608.39840	6.000E+0	
609.3750	1.300E+1	
610.35160	1.300E+1	
611.32810	7.000E+0	
612.30470	2.000E+1	
613.28130	1.900E+1	
614.25780	1.500E+1	
615.23440	1.300E+1	
616.21090	1.300E+1	
617.18750	1.500E+1	
618.16410	1.800E+1	
619.14060	1.200E+1	
620.11720	2.000E+1	
621.09380	1.800E+1	
622.07030	1.600E+1	
623.04690	1.600E+1	
624.02340	1.600E+1	
625.0	1.600E+1	
625.97660	1.300E+1	
626.95310	1.200E+1	
627.92970	1.000E+1	
628.90630	3.000E+1	
629.88280	1.400E+1	
630.85940	2.200E+1	
631.83590	1.300E+1	
632.81250	1.600E+1	
633.78910	9.000E+0	
634.76560	1.600E+1	
635.74220	1.200E+1	
636.71880	1.600E+1	
637.69530	1.100E+1	
638.67190	1.400E+1	
639.64840	1.900E+1	
640.6250	9.000E+0	
641.60160	1.400E+1	
642.57810	8.000E+0	
643.55470	1.500E+1	
644.53130	1.200E+1	
645.50780	1.200E+1	
646.48440	1.100E+1	
647.46090	7.000E+0	
648.43750	1.300E+1	
649.41410	1.700E+1	
650.39060	7.000E+0	
651.36720	1.100E+1	
652.34380	1.300E+1	
653.32030	1.300E+1	
654.29690	7.000E+0	
655.27340	1.200E+1	
656.250	1.500E+1	
657.22660	1.900E+1	
658.20310	1.300E+1	
659.17970	1.200E+1	
660.15630	1.200E+1	
661.13280	9.000E+0	
662.10940	1.400E+1	
663.08590	1.200E+1	
664.06250	1.100E+1	
665.03910	1.400E+1	
666.01560	1.400E+1	
666.99220	1.000E+1	
667.96880	1.100E+1	
668.94530	1.100E+1	
669.92190	8.000E+0	
670.89840	1.200E+1	
671.8750	1.300E+1	
672.85160	2.100E+1	
673.82810	1.100E+1	
674.80470	1.300E+1	
675.78130	8.000E+0	
676.75780	1.100E+1	
677.73440	1.400E+1	
678.71090	1.400E+1	
679.68750	7.000E+0	
680.66410	1.600E+1	
681.64060	1.400E+1	
682.61720	1.000E+1	
683.59380	9.000E+0	
684.57030	1.600E+1	
685.54690	9.000E+0	
686.52340	1.100E+1	
687.50	1.100E+1	
688.47660	5.000E+0	
689.45310	1.500E+1	
690.42970	1.800E+1	
691.40630	1.800E+1	
692.38280	1.000E+1	
693.35940	7.000E+0	
694.33590	6.000E+0	
695.31250	1.100E+1	
696.28910	8.000E+0	
697.26560	1.000E+1	
698.24220	8.000E+0	
699.21880	9.000E+0	
700.19530	8.000E+0	
701.17190	1.400E+1	
702.14840	9.000E+0	
703.1250	1.400E+1	
704.10160	9.000E+0	
705.07810	9.000E+0	
706.05470	1.000E+1	
707.03130	8.000E+0	
708.00780	1.600E+1	
708.98440	9.000E+0	
709.96090	1.200E+1	
710.93750	6.000E+0	
711.91410	8.000E+0	
712.89060	6.000E+0	
713.86720	5.000E+0	
714.84380	1.000E+1	
715.82030	1.300E+1	
716.79690	1.100E+1	
717.77340	1.300E+1	
718.750	1.200E+1	
719.72660	5.000E+0	
720.70310	1.300E+1	
721.67970	9.000E+0	
722.65630	1.000E+1	
723.63280	1.000E+1	
724.60940	8.000E+0	
725.58590	1.100E+1	
726.56250	1.800E+1	
727.53910	9.000E+0	
728.51560	1.200E+1	
729.49220	7.000E+0	
730.46880	1.600E+1	
731.44530	9.000E+0	
732.42190	1.000E+1	
733.39840	7.000E+0	
734.3750	7.000E+0	
735.35160	1.000E+0	
736.32810	1.500E+1	
737.30470	5.000E+0	
738.28130	9.000E+0	
739.25780	1.200E+1	
740.23440	7.000E+0	
741.21090	1.100E+1	
742.18750	8.000E+0	
743.16410	8.000E+0	
744.14060	1.000E+1	
745.11720	1.000E+1	
746.09380	1.100E+1	
747.07030	1.000E+1	
748.04690	6.000E+0	
749.02340	7.000E+0	
750.0	1.300E+1	
750.97660	1.300E+1	
751.95310	7.000E+0	
752.92970	1.000E+1	
753.90630	1.100E+1	
754.88280	6.000E+0	
755.85940	1.100E+1	
756.83590	8.000E+0	
757.81250	1.300E+1	
758.78910	1.000E+1	
759.76560	8.000E+0	
760.74220	8.000E+0	
761.71880	6.000E+0	
762.69530	1.000E+1	
763.67190	1.100E+1	
764.64840	7.000E+0	
765.6250	9.000E+0	
766.60160	9.000E+0	
767.57810	7.000E+0	
768.55470	1.100E+1	
769.53130	9.000E+0	
770.50780	9.000E+0	
771.48440	1.100E+1	
772.46090	1.200E+1	
773.43750	7.000E+0	
774.41410	7.000E+0	
775.39060	8.000E+0	
776.36720	5.000E+0	
777.34380	7.000E+0	
778.32030	6.000E+0	
779.29690	9.000E+0	
780.27340	6.000E+0	
781.250	6.000E+0	
782.22660	1.000E+1	
783.20310	8.000E+0	
784.17970	4.000E+0	
785.15630	1.000E+1	
786.13280	8.000E+0	
787.10940	9.000E+0	
788.08590	7.000E+0	
789.06250	1.000E+1	
790.03910	8.000E+0	
791.01560	8.000E+0	
791.99220	8.000E+0	
792.96880	5.000E+0	
793.94530	5.000E+0	
794.92190	8.000E+0	
795.89840	8.000E+0	
796.8750	8.000E+0	
797.85160	8.000E+0	
798.82810	4.000E+0	
799.80470	5.000E+0	
800.78130	7.000E+0	
801.75780	7.000E+0	
802.73440	8.000E+0	
803.71090	1.000E+0	
804.68750	9.000E+0	
805.66410	4.000E+0	
806.64060	1.100E+1	
807.61720	9.000E+0	
808.59380	7.000E+0	
809.57030	1.000E+1	
810.54690	1.000E+1	
811.52340	5.000E+0	
812.50	1.100E+1	
813.47660	1.200E+1	
814.45310	5.000E+0	
815.42970	6.000E+0	
816.40630	9.000E+0	
817.38280	3.000E+0	
818.35940	9.000E+0	
819.33590	6.000E+0	
820.31250	1.400E+1	
821.28910	5.000E+0	
822.26560	7.000E+0	
823.24220	3.000E+0	
824.21880	7.000E+0	
825.19530	1.000E+1	
826.17190	5.000E+0	
827.14840	1.000E+1	
828.1250	1.000E+1	
829.10160	1.100E+1	
830.07810	8.000E+0	
831.05470	7.000E+0	
832.03130	9.000E+0	
833.00780	9.000E+0	
833.98440	3.000E+0	
834.96090	5.000E+0	
835.93750	8.000E+0	
836.91410	5.000E+0	
837.89060	6.000E+0	
838.86720	4.000E+0	
839.84380	7.000E+0	
840.82030	3.000E+0	
841.79690	6.000E+0	
842.77340	7.000E+0	
843.750	7.000E+0	
844.72660	1.200E+1	
845.70310	1.500E+1	
846.67970	9.000E+0	
847.65630	4.000E+0	
848.63280	3.000E+0	
849.60940	5.000E+0	
850.58590	4.000E+0	
851.56250	6.000E+0	
852.53910	8.000E+0	
853.51560	9.000E+0	
854.49220	4.000E+0	
855.46880	6.000E+0	
856.44530	9.000E+0	
857.42190	3.000E+0	
858.39840	6.000E+0	
859.3750	9.000E+0	
860.35160	6.000E+0	
861.32810	3.000E+0	
862.30470	8.000E+0	
863.28130	4.000E+0	
864.25780	6.000E+0	
865.23440	7.000E+0	
866.21090	6.000E+0	
867.18750	5.000E+0	
868.16410	4.000E+0	
869.14060	5.000E+0	
870.11720	2.000E+0	
871.09380	5.000E+0	
872.07030	4.000E+0	
873.04690	6.000E+0	
874.02340	1.200E+1	
875.0	5.000E+0	
875.97660	6.000E+0	
876.95310	9.000E+0	
877.92970	5.000E+0	
878.90630	1.500E+1	
879.88280	9.000E+0	
880.85940	7.000E+0	
881.83590	2.000E+0	
882.81250	5.000E+0	
883.78910	7.000E+0	
884.76560	7.000E+0	
885.74220	8.000E+0	
886.71880	6.000E+0	
887.69530	7.000E+0	
888.67190	1.000E+0	
889.64840	3.000E+0	
890.6250	8.000E+0	
891.60160	5.000E+0	
892.57810	7.000E+0	
893.55470	4.000E+0	
894.53130	7.000E+0	
895.50780	9.000E+0	
896.48440	4.000E+0	
897.46090	6.000E+0	
898.43750	1.000E+1	
899.41410	1.000E+1	
900.39060	6.000E+0	
901.36720	7.000E+0	
902.34380	7.000E+0	
903.32030	7.000E+0	
904.29690	8.000E+0	
905.27340	6.000E+0	
906.250	3.000E+0	
907.22660	5.000E+0	
908.20310	6.000E+0	
909.17970	6.000E+0	
910.15630	7.000E+0	
911.13280	6.000E+0	
912.10940	8.000E+0	
913.08590	1.500E+1	
914.06250	2.000E+0	
915.03910	6.000E+0	
916.01560	3.000E+0	
916.99220	6.000E+0	
917.96880	6.000E+0	
918.94530	7.000E+0	
919.92190	2.000E+0	
920.89840	6.000E+0	
921.8750	5.000E+0	
922.85160	2.000E+0	
923.82810	7.000E+0	
924.80470	4.000E+0	
925.78130	3.000E+0	
926.75780	5.000E+0	
927.73440	8.000E+0	
928.71090	6.000E+0	
929.68750	8.000E+0	
930.66410	5.000E+0	
931.64060	4.000E+0	
932.61720	4.000E+0	
933.59380	5.000E+0	
934.57030	6.000E+0	
935.54690	1.000E+1	
936.52340	2.000E+0	
937.50	4.000E+0	
938.47660	1.000E+1	
939.45310	6.000E+0	
940.42970	5.000E+0	
941.40630	9.000E+0	
942.38280	1.000E+0	
943.35940	5.000E+0	
944.33590	6.000E+0	
945.31250	4.000E+0	
946.28910	4.000E+0	
947.26560	7.000E+0	
948.24220	6.000E+0	
949.21880	8.000E+0	
950.19530	5.000E+0	
951.17190	1.000E+0	
952.14840	8.000E+0	
953.1250	5.000E+0	
954.10160	3.000E+0	
955.07810	5.000E+0	
956.05470	1.000E+1	
957.03130	5.000E+0	
958.00780	9.000E+0	
958.98440	5.000E+0	
959.96090	1.000E+0	
960.93750	8.000E+0	
961.91410	6.000E+0	
962.89060	2.000E+0	
963.86720	4.000E+0	
964.84380	7.000E+0	
965.82030	1.000E+0	
966.79690	7.000E+0	
967.77340	3.000E+0	
968.750	1.000E+1	
969.72660	4.000E+0	
970.70310	6.000E+0	
971.67970	6.000E+0	
972.65630	2.000E+0	
973.63280	2.000E+0	
974.60940	6.000E+0	
975.58590	7.000E+0	
976.56250	6.000E+0	
977.53910	4.000E+0	
978.51560	7.000E+0	
979.49220	9.000E+0	
980.46880	6.000E+0	
981.44530	5.000E+0	
982.42190	5.000E+0	
983.39840	4.000E+0	
984.3750	1.100E+1	
985.35160	8.000E+0	
986.32810	6.000E+0	
987.30470	6.000E+0	
988.28130	7.000E+0	
989.25780	8.000E+0	
990.23440	6.000E+0	
991.21090	4.000E+0	
992.18750	5.000E+0	
993.16410	4.000E+0	
994.14060	4.000E+0	
995.11720	4.000E+0	
996.09380	6.000E+0	
997.07030	3.000E+0	
998.04690	7.000E+0	
999.02340	5.000E+0	
