Labels	quencher 0.5 mM		
Type	Time Scan	
Comment		
start(nm)	0.00	
stop(nm)	999.02340	
step(nm)	0.976563	
fixed/offset(nm)	 	
Xaxis	Time	
Yaxis	Counts	
0.00	1.000E+0	
0.976563	1.000E+0	
1.953125	0.000E+0	
2.929688	0.000E+0	
3.906250	3.000E+0	
4.882813	2.000E+0	
5.859375	0.000E+0	
6.835938	0.000E+0	
7.81250	0.000E+0	
8.789063	0.000E+0	
9.765625	1.000E+0	
10.742188	0.000E+0	
11.718750	1.000E+0	
12.695313	0.000E+0	
13.671875	1.000E+0	
14.648438	0.000E+0	
15.6250	3.000E+0	
16.601563	0.000E+0	
17.578125	2.000E+0	
18.554688	1.000E+0	
19.531250	0.000E+0	
20.507813	3.000E+0	
21.484375	0.000E+0	
22.460938	0.000E+0	
23.43750	0.000E+0	
24.414063	1.000E+0	
25.390625	1.000E+0	
26.367188	0.000E+0	
27.343750	2.000E+0	
28.320313	0.000E+0	
29.296875	0.000E+0	
30.273438	0.000E+0	
31.250	0.000E+0	
32.226563	1.000E+0	
33.203125	1.000E+0	
34.179688	0.000E+0	
35.156250	2.000E+0	
36.132813	1.000E+0	
37.109375	2.000E+0	
38.085938	1.000E+0	
39.06250	0.000E+0	
40.039063	1.000E+0	
41.015625	1.000E+0	
41.992188	0.000E+0	
42.968750	1.000E+0	
43.945313	0.000E+0	
44.921875	1.000E+0	
45.898438	0.000E+0	
46.8750	0.000E+0	
47.851563	0.000E+0	
48.828125	1.000E+0	
49.804688	2.000E+0	
50.781250	2.000E+0	
51.757813	1.000E+0	
52.734375	0.000E+0	
53.710938	0.000E+0	
54.68750	0.000E+0	
55.664063	1.000E+0	
56.640625	0.000E+0	
57.617188	0.000E+0	
58.593750	0.000E+0	
59.570313	5.000E+0	
60.546875	7.800E+1	
61.523438	4.350E+2	
62.50	1.115E+3	
63.476563	1.674E+3	
64.453125	1.829E+3	
65.429688	2.000E+3	
66.406250	1.926E+3	
67.382813	1.864E+3	
68.359375	1.880E+3	
69.335938	1.801E+3	
70.31250	1.747E+3	
71.289063	1.679E+3	
72.265625	1.710E+3	
73.242188	1.670E+3	
74.218750	1.612E+3	
75.195313	1.648E+3	
76.171875	1.530E+3	
77.148438	1.489E+3	
78.1250	1.450E+3	
79.101563	1.467E+3	
80.078125	1.428E+3	
81.054688	1.389E+3	
82.031250	1.411E+3	
83.007813	1.349E+3	
83.984375	1.314E+3	
84.960938	1.271E+3	
85.93750	1.282E+3	
86.914063	1.262E+3	
87.890625	1.215E+3	
88.867188	1.240E+3	
89.843750	1.155E+3	
90.820313	1.179E+3	
91.796875	1.112E+3	
92.773438	1.160E+3	
93.750	1.102E+3	
94.726563	1.096E+3	
95.703125	1.124E+3	
96.679688	1.071E+3	
97.656250	1.149E+3	
98.632813	1.078E+3	
99.609375	1.019E+3	
100.58590	9.820E+2	
101.56250	1.024E+3	
102.53910	1.006E+3	
103.51560	9.750E+2	
104.49220	9.870E+2	
105.46880	9.860E+2	
106.44530	9.840E+2	
107.42190	9.570E+2	
108.39840	9.320E+2	
109.3750	9.670E+2	
110.35160	9.620E+2	
111.32810	9.500E+2	
112.30470	8.770E+2	
113.28130	9.270E+2	
114.25780	9.300E+2	
115.23440	8.960E+2	
116.21090	8.870E+2	
117.18750	8.970E+2	
118.16410	8.930E+2	
119.14060	9.210E+2	
120.11720	8.730E+2	
121.09380	8.410E+2	
122.07030	8.620E+2	
123.04690	8.740E+2	
124.02340	8.450E+2	
125.0	7.950E+2	
125.97660	8.010E+2	
126.95310	8.680E+2	
127.92970	8.490E+2	
128.90630	7.950E+2	
129.88280	8.240E+2	
130.85940	8.140E+2	
131.83590	7.660E+2	
132.81250	8.140E+2	
133.78910	7.860E+2	
134.76560	7.790E+2	
135.74220	7.110E+2	
136.71880	7.940E+2	
137.69530	7.500E+2	
138.67190	7.580E+2	
139.64840	7.560E+2	
140.6250	7.950E+2	
141.60160	6.790E+2	
142.57810	7.470E+2	
143.55470	7.460E+2	
144.53130	7.440E+2	
145.50780	7.240E+2	
146.48440	7.050E+2	
147.46090	7.320E+2	
148.43750	6.910E+2	
149.41410	6.780E+2	
150.39060	6.770E+2	
151.36720	6.850E+2	
152.34380	6.770E+2	
153.32030	6.700E+2	
154.29690	6.310E+2	
155.27340	6.200E+2	
156.250	6.580E+2	
157.22660	6.290E+2	
158.20310	6.910E+2	
159.17970	6.500E+2	
160.15630	6.860E+2	
161.13280	6.030E+2	
162.10940	6.840E+2	
163.08590	6.250E+2	
164.06250	6.510E+2	
165.03910	6.350E+2	
166.01560	6.720E+2	
166.99220	6.230E+2	
167.96880	6.340E+2	
168.94530	5.950E+2	
169.92190	6.320E+2	
170.89840	5.630E+2	
171.8750	5.870E+2	
172.85160	6.280E+2	
173.82810	6.210E+2	
174.80470	6.180E+2	
175.78130	5.950E+2	
176.75780	5.520E+2	
177.73440	5.550E+2	
178.71090	5.660E+2	
179.68750	5.680E+2	
180.66410	5.610E+2	
181.64060	5.710E+2	
182.61720	5.210E+2	
183.59380	5.640E+2	
184.57030	5.780E+2	
185.54690	5.630E+2	
186.52340	5.140E+2	
187.50	5.650E+2	
188.47660	5.540E+2	
189.45310	5.420E+2	
190.42970	5.180E+2	
191.40630	5.480E+2	
192.38280	5.380E+2	
193.35940	5.120E+2	
194.33590	5.000E+2	
195.31250	5.130E+2	
196.28910	5.510E+2	
197.26560	5.280E+2	
198.24220	4.970E+2	
199.21880	5.100E+2	
200.19530	5.280E+2	
201.17190	5.210E+2	
202.14840	4.980E+2	
203.1250	5.150E+2	
204.10160	4.760E+2	
205.07810	4.880E+2	
206.05470	5.100E+2	
207.03130	5.030E+2	
208.00780	4.820E+2	
208.98440	4.790E+2	
209.96090	4.790E+2	
210.93750	4.700E+2	
211.91410	4.910E+2	
212.89060	4.900E+2	
213.86720	4.690E+2	
214.84380	4.820E+2	
215.82030	4.820E+2	
216.79690	4.220E+2	
217.77340	4.540E+2	
218.750	4.510E+2	
219.72660	4.930E+2	
220.70310	4.660E+2	
221.67970	4.860E+2	
222.65630	4.610E+2	
223.63280	4.650E+2	
224.60940	4.460E+2	
225.58590	4.110E+2	
226.56250	3.980E+2	
227.53910	4.350E+2	
228.51560	4.270E+2	
229.49220	4.360E+2	
230.46880	4.530E+2	
231.44530	4.230E+2	
232.42190	4.280E+2	
233.39840	4.320E+2	
234.3750	3.910E+2	
235.35160	3.860E+2	
236.32810	4.330E+2	
237.30470	4.160E+2	
238.28130	4.010E+2	
239.25780	3.650E+2	
240.23440	3.770E+2	
241.21090	3.540E+2	
242.18750	3.910E+2	
243.16410	3.990E+2	
244.14060	3.830E+2	
245.11720	3.760E+2	
246.09380	3.930E+2	
247.07030	3.970E+2	
248.04690	3.610E+2	
249.02340	3.540E+2	
250.0	3.830E+2	
250.97660	3.550E+2	
251.95310	3.790E+2	
252.92970	3.640E+2	
253.90630	3.560E+2	
254.88280	3.430E+2	
255.85940	3.740E+2	
256.83590	3.460E+2	
257.81250	3.190E+2	
258.78910	3.670E+2	
259.76560	3.390E+2	
260.74220	3.410E+2	
261.71880	3.140E+2	
262.69530	3.660E+2	
263.67190	3.310E+2	
264.64840	3.320E+2	
265.6250	3.300E+2	
266.60160	3.010E+2	
267.57810	3.390E+2	
268.55470	3.180E+2	
269.53130	3.180E+2	
270.50780	3.100E+2	
271.48440	3.150E+2	
272.46090	3.000E+2	
273.43750	3.250E+2	
274.41410	2.720E+2	
275.39060	3.070E+2	
276.36720	3.200E+2	
277.34380	3.340E+2	
278.32030	2.900E+2	
279.29690	3.100E+2	
280.27340	2.920E+2	
281.250	2.900E+2	
282.22660	3.230E+2	
283.20310	2.530E+2	
284.17970	3.120E+2	
285.15630	2.800E+2	
286.13280	2.770E+2	
287.10940	2.560E+2	
288.08590	2.690E+2	
289.06250	2.680E+2	
290.03910	3.000E+2	
291.01560	2.980E+2	
291.99220	2.790E+2	
292.96880	2.350E+2	
293.94530	2.730E+2	
294.92190	2.470E+2	
295.89840	2.530E+2	
296.8750	2.560E+2	
297.85160	2.850E+2	
298.82810	2.820E+2	
299.80470	2.530E+2	
300.78130	2.540E+2	
301.75780	2.510E+2	
302.73440	2.450E+2	
303.71090	2.910E+2	
304.68750	2.650E+2	
305.66410	2.850E+2	
306.64060	2.350E+2	
307.61720	2.630E+2	
308.59380	2.680E+2	
309.57030	2.350E+2	
310.54690	2.610E+2	
311.52340	2.720E+2	
312.50	2.610E+2	
313.47660	2.670E+2	
314.45310	2.430E+2	
315.42970	2.380E+2	
316.40630	2.380E+2	
317.38280	2.240E+2	
318.35940	2.740E+2	
319.33590	2.250E+2	
320.31250	2.210E+2	
321.28910	2.170E+2	
322.26560	2.480E+2	
323.24220	2.480E+2	
324.21880	2.000E+2	
325.19530	2.270E+2	
326.17190	2.470E+2	
327.14840	2.370E+2	
328.1250	2.240E+2	
329.10160	2.050E+2	
330.07810	2.370E+2	
331.05470	2.120E+2	
332.03130	2.230E+2	
333.00780	2.160E+2	
333.98440	2.110E+2	
334.96090	2.130E+2	
335.93750	2.020E+2	
336.91410	1.910E+2	
337.89060	2.100E+2	
338.86720	2.100E+2	
339.84380	2.070E+2	
340.82030	2.290E+2	
341.79690	2.050E+2	
342.77340	2.230E+2	
343.750	1.820E+2	
344.72660	2.160E+2	
345.70310	1.900E+2	
346.67970	2.080E+2	
347.65630	2.170E+2	
348.63280	1.980E+2	
349.60940	1.930E+2	
350.58590	1.910E+2	
351.56250	1.820E+2	
352.53910	1.870E+2	
353.51560	1.830E+2	
354.49220	2.020E+2	
355.46880	1.760E+2	
356.44530	1.800E+2	
357.42190	2.070E+2	
358.39840	1.660E+2	
359.3750	1.740E+2	
360.35160	1.680E+2	
361.32810	1.580E+2	
362.30470	1.830E+2	
363.28130	1.970E+2	
364.25780	1.940E+2	
365.23440	1.650E+2	
366.21090	1.700E+2	
367.18750	1.590E+2	
368.16410	1.640E+2	
369.14060	1.620E+2	
370.11720	1.810E+2	
371.09380	1.640E+2	
372.07030	1.860E+2	
373.04690	1.670E+2	
374.02340	1.880E+2	
375.0	1.800E+2	
375.97660	1.670E+2	
376.95310	1.690E+2	
377.92970	1.760E+2	
378.90630	1.680E+2	
379.88280	1.540E+2	
380.85940	1.480E+2	
381.83590	1.780E+2	
382.81250	1.390E+2	
383.78910	1.440E+2	
384.76560	1.430E+2	
385.74220	1.550E+2	
386.71880	1.740E+2	
387.69530	1.580E+2	
388.67190	1.580E+2	
389.64840	1.660E+2	
390.6250	1.490E+2	
391.60160	1.560E+2	
392.57810	1.580E+2	
393.55470	1.540E+2	
394.53130	1.530E+2	
395.50780	1.510E+2	
396.48440	1.260E+2	
397.46090	1.280E+2	
398.43750	1.510E+2	
399.41410	1.440E+2	
400.39060	1.410E+2	
401.36720	1.170E+2	
402.34380	1.370E+2	
403.32030	1.240E+2	
404.29690	1.400E+2	
405.27340	1.360E+2	
406.250	1.390E+2	
407.22660	1.250E+2	
408.20310	1.360E+2	
409.17970	1.260E+2	
410.15630	1.200E+2	
411.13280	1.190E+2	
412.10940	1.250E+2	
413.08590	1.330E+2	
414.06250	1.340E+2	
415.03910	1.270E+2	
416.01560	1.450E+2	
416.99220	1.170E+2	
417.96880	1.260E+2	
418.94530	1.210E+2	
419.92190	1.160E+2	
420.89840	1.290E+2	
421.8750	1.160E+2	
422.85160	1.070E+2	
423.82810	9.700E+1	
424.80470	1.280E+2	
425.78130	1.350E+2	
426.75780	1.190E+2	
427.73440	1.280E+2	
428.71090	1.360E+2	
429.68750	1.160E+2	
430.66410	1.180E+2	
431.64060	1.120E+2	
432.61720	1.240E+2	
433.59380	1.180E+2	
434.57030	1.190E+2	
435.54690	1.250E+2	
436.52340	1.180E+2	
437.50	1.130E+2	
438.47660	1.170E+2	
439.45310	1.000E+2	
440.42970	1.080E+2	
441.40630	1.030E+2	
442.38280	1.210E+2	
443.35940	1.020E+2	
444.33590	7.500E+1	
445.31250	1.120E+2	
446.28910	1.190E+2	
447.26560	1.070E+2	
448.24220	8.100E+1	
449.21880	1.060E+2	
450.19530	1.050E+2	
451.17190	1.100E+2	
452.14840	1.070E+2	
453.1250	1.130E+2	
454.10160	1.150E+2	
455.07810	1.120E+2	
456.05470	9.700E+1	
457.03130	1.210E+2	
458.00780	9.900E+1	
458.98440	1.070E+2	
459.96090	9.700E+1	
460.93750	1.030E+2	
461.91410	9.800E+1	
462.89060	1.020E+2	
463.86720	1.210E+2	
464.84380	1.020E+2	
465.82030	9.500E+1	
466.79690	8.700E+1	
467.77340	1.110E+2	
468.750	7.900E+1	
469.72660	8.500E+1	
470.70310	7.400E+1	
471.67970	1.010E+2	
472.65630	9.100E+1	
473.63280	8.000E+1	
474.60940	9.300E+1	
475.58590	8.100E+1	
476.56250	9.300E+1	
477.53910	8.700E+1	
478.51560	9.200E+1	
479.49220	9.700E+1	
480.46880	9.900E+1	
481.44530	7.800E+1	
482.42190	8.300E+1	
483.39840	8.800E+1	
484.3750	7.600E+1	
485.35160	9.500E+1	
486.32810	7.900E+1	
487.30470	8.300E+1	
488.28130	7.900E+1	
489.25780	8.400E+1	
490.23440	8.100E+1	
491.21090	7.600E+1	
492.18750	7.800E+1	
493.16410	7.300E+1	
494.14060	9.100E+1	
495.11720	7.300E+1	
496.09380	9.000E+1	
497.07030	6.600E+1	
498.04690	7.600E+1	
499.02340	7.000E+1	
500.0	5.200E+1	
500.97660	7.100E+1	
501.95310	6.100E+1	
502.92970	9.100E+1	
503.90630	7.200E+1	
504.88280	8.500E+1	
505.85940	7.800E+1	
506.83590	7.700E+1	
507.81250	7.700E+1	
508.78910	7.900E+1	
509.76560	7.400E+1	
510.74220	7.500E+1	
511.71880	6.800E+1	
512.69530	5.600E+1	
513.67190	8.200E+1	
514.64840	5.800E+1	
515.6250	6.500E+1	
516.60160	6.400E+1	
517.57810	8.300E+1	
518.55470	8.000E+1	
519.53130	6.800E+1	
520.50780	7.200E+1	
521.48440	7.700E+1	
522.46090	8.500E+1	
523.43750	6.900E+1	
524.41410	6.000E+1	
525.39060	6.500E+1	
526.36720	6.700E+1	
527.34380	6.800E+1	
528.32030	6.000E+1	
529.29690	6.400E+1	
530.27340	6.200E+1	
531.250	5.900E+1	
532.22660	6.700E+1	
533.20310	6.500E+1	
534.17970	6.400E+1	
535.15630	7.200E+1	
536.13280	6.100E+1	
537.10940	5.100E+1	
538.08590	6.100E+1	
539.06250	5.300E+1	
540.03910	5.900E+1	
541.01560	6.000E+1	
541.99220	5.800E+1	
542.96880	6.100E+1	
543.94530	5.500E+1	
544.92190	5.100E+1	
545.89840	6.100E+1	
546.8750	5.900E+1	
547.85160	5.500E+1	
548.82810	5.300E+1	
549.80470	5.000E+1	
550.78130	6.200E+1	
551.75780	7.400E+1	
552.73440	4.500E+1	
553.71090	6.100E+1	
554.68750	5.200E+1	
555.66410	6.100E+1	
556.64060	5.300E+1	
557.61720	5.200E+1	
558.59380	5.700E+1	
559.57030	4.400E+1	
560.54690	6.300E+1	
561.52340	4.000E+1	
562.50	5.500E+1	
563.47660	6.200E+1	
564.45310	4.800E+1	
565.42970	4.200E+1	
566.40630	6.300E+1	
567.38280	5.800E+1	
568.35940	4.500E+1	
569.33590	6.300E+1	
570.31250	4.500E+1	
571.28910	5.200E+1	
572.26560	3.600E+1	
573.24220	4.700E+1	
574.21880	4.500E+1	
575.19530	4.300E+1	
576.17190	3.500E+1	
577.14840	4.800E+1	
578.1250	4.400E+1	
579.10160	5.200E+1	
580.07810	5.800E+1	
581.05470	5.200E+1	
582.03130	4.900E+1	
583.00780	5.100E+1	
583.98440	4.300E+1	
584.96090	5.700E+1	
585.93750	4.200E+1	
586.91410	4.500E+1	
587.89060	5.000E+1	
588.86720	4.400E+1	
589.84380	5.000E+1	
590.82030	4.700E+1	
591.79690	5.600E+1	
592.77340	4.100E+1	
593.750	3.700E+1	
594.72660	4.700E+1	
595.70310	4.500E+1	
596.67970	3.800E+1	
597.65630	4.500E+1	
598.63280	3.700E+1	
599.60940	5.000E+1	
600.58590	4.100E+1	
601.56250	3.300E+1	
602.53910	4.200E+1	
603.51560	4.400E+1	
604.49220	5.800E+1	
605.46880	4.200E+1	
606.44530	5.100E+1	
607.42190	4.100E+1	
608.39840	3.800E+1	
609.3750	3.800E+1	
610.35160	4.700E+1	
611.32810	4.800E+1	
612.30470	3.000E+1	
613.28130	3.300E+1	
614.25780	4.000E+1	
615.23440	4.000E+1	
616.21090	3.600E+1	
617.18750	3.000E+1	
618.16410	5.100E+1	
619.14060	4.800E+1	
620.11720	4.400E+1	
621.09380	4.400E+1	
622.07030	3.900E+1	
623.04690	4.400E+1	
624.02340	4.700E+1	
625.0	3.500E+1	
625.97660	2.500E+1	
626.95310	4.600E+1	
627.92970	2.800E+1	
628.90630	4.000E+1	
629.88280	2.800E+1	
630.85940	4.100E+1	
631.83590	4.200E+1	
632.81250	2.100E+1	
633.78910	3.300E+1	
634.76560	4.700E+1	
635.74220	2.800E+1	
636.71880	4.300E+1	
637.69530	4.300E+1	
638.67190	4.000E+1	
639.64840	4.200E+1	
640.6250	3.000E+1	
641.60160	3.900E+1	
642.57810	2.600E+1	
643.55470	3.700E+1	
644.53130	3.200E+1	
645.50780	3.800E+1	
646.48440	3.400E+1	
647.46090	4.000E+1	
648.43750	2.600E+1	
649.41410	4.700E+1	
650.39060	3.800E+1	
651.36720	3.000E+1	
652.34380	2.800E+1	
653.32030	2.800E+1	
654.29690	2.500E+1	
655.27340	3.800E+1	
656.250	3.100E+1	
657.22660	3.900E+1	
658.20310	2.600E+1	
659.17970	4.000E+1	
660.15630	3.700E+1	
661.13280	3.400E+1	
662.10940	3.100E+1	
663.08590	2.200E+1	
664.06250	3.300E+1	
665.03910	4.200E+1	
666.01560	3.500E+1	
666.99220	2.900E+1	
667.96880	3.100E+1	
668.94530	3.600E+1	
669.92190	2.700E+1	
670.89840	4.800E+1	
671.8750	2.300E+1	
672.85160	2.600E+1	
673.82810	3.000E+1	
674.80470	3.200E+1	
675.78130	4.000E+1	
676.75780	4.300E+1	
677.73440	3.500E+1	
678.71090	2.500E+1	
679.68750	3.000E+1	
680.66410	3.500E+1	
681.64060	3.000E+1	
682.61720	3.200E+1	
683.59380	2.400E+1	
684.57030	2.800E+1	
685.54690	2.700E+1	
686.52340	2.600E+1	
687.50	2.800E+1	
688.47660	3.300E+1	
689.45310	2.300E+1	
690.42970	2.600E+1	
691.40630	1.800E+1	
692.38280	2.900E+1	
693.35940	2.600E+1	
694.33590	3.000E+1	
695.31250	3.500E+1	
696.28910	2.700E+1	
697.26560	2.800E+1	
698.24220	2.900E+1	
699.21880	2.400E+1	
700.19530	3.100E+1	
701.17190	2.900E+1	
702.14840	2.400E+1	
703.1250	2.700E+1	
704.10160	2.000E+1	
705.07810	2.800E+1	
706.05470	1.500E+1	
707.03130	2.400E+1	
708.00780	3.700E+1	
708.98440	2.400E+1	
709.96090	2.400E+1	
710.93750	3.000E+1	
711.91410	3.900E+1	
712.89060	2.000E+1	
713.86720	1.700E+1	
714.84380	2.100E+1	
715.82030	2.600E+1	
716.79690	3.200E+1	
717.77340	1.900E+1	
718.750	2.800E+1	
719.72660	2.900E+1	
720.70310	2.600E+1	
721.67970	3.300E+1	
722.65630	3.300E+1	
723.63280	1.700E+1	
724.60940	2.600E+1	
725.58590	1.900E+1	
726.56250	1.600E+1	
727.53910	2.600E+1	
728.51560	3.100E+1	
729.49220	2.600E+1	
730.46880	2.400E+1	
731.44530	1.800E+1	
732.42190	2.500E+1	
733.39840	2.800E+1	
734.3750	2.500E+1	
735.35160	2.600E+1	
736.32810	2.200E+1	
737.30470	2.100E+1	
738.28130	3.200E+1	
739.25780	2.000E+1	
740.23440	2.800E+1	
741.21090	2.500E+1	
742.18750	1.700E+1	
743.16410	2.100E+1	
744.14060	2.300E+1	
745.11720	2.400E+1	
746.09380	1.800E+1	
747.07030	2.000E+1	
748.04690	2.500E+1	
749.02340	2.200E+1	
750.0	2.600E+1	
750.97660	2.100E+1	
751.95310	3.500E+1	
752.92970	1.800E+1	
753.90630	2.300E+1	
754.88280	2.500E+1	
755.85940	2.300E+1	
756.83590	2.700E+1	
757.81250	3.100E+1	
758.78910	2.100E+1	
759.76560	1.500E+1	
760.74220	2.200E+1	
761.71880	2.000E+1	
762.69530	1.700E+1	
763.67190	3.000E+1	
764.64840	2.900E+1	
765.6250	1.900E+1	
766.60160	2.300E+1	
767.57810	1.900E+1	
768.55470	2.100E+1	
769.53130	2.300E+1	
770.50780	1.600E+1	
771.48440	2.800E+1	
772.46090	2.000E+1	
773.43750	2.600E+1	
774.41410	2.500E+1	
775.39060	2.200E+1	
776.36720	2.500E+1	
777.34380	2.500E+1	
778.32030	2.000E+1	
779.29690	1.600E+1	
780.27340	1.600E+1	
781.250	1.500E+1	
782.22660	2.400E+1	
783.20310	1.900E+1	
784.17970	1.300E+1	
785.15630	1.700E+1	
786.13280	2.200E+1	
787.10940	2.000E+1	
788.08590	2.300E+1	
789.06250	3.000E+1	
790.03910	1.600E+1	
791.01560	2.500E+1	
791.99220	1.700E+1	
792.96880	1.000E+1	
793.94530	1.500E+1	
794.92190	1.600E+1	
795.89840	1.900E+1	
796.8750	1.700E+1	
797.85160	1.500E+1	
798.82810	2.300E+1	
799.80470	1.400E+1	
800.78130	1.900E+1	
801.75780	1.800E+1	
802.73440	1.600E+1	
803.71090	2.800E+1	
804.68750	1.400E+1	
805.66410	2.200E+1	
806.64060	2.300E+1	
807.61720	1.400E+1	
808.59380	1.600E+1	
809.57030	1.500E+1	
810.54690	1.900E+1	
811.52340	1.500E+1	
812.50	2.300E+1	
813.47660	2.100E+1	
814.45310	1.600E+1	
815.42970	2.200E+1	
816.40630	1.500E+1	
817.38280	1.700E+1	
818.35940	1.600E+1	
819.33590	1.800E+1	
820.31250	1.600E+1	
821.28910	2.500E+1	
822.26560	2.000E+1	
823.24220	1.700E+1	
824.21880	1.000E+1	
825.19530	1.700E+1	
826.17190	2.700E+1	
827.14840	1.400E+1	
828.1250	1.000E+1	
829.10160	1.600E+1	
830.07810	1.100E+1	
831.05470	2.500E+1	
832.03130	1.600E+1	
833.00780	1.600E+1	
833.98440	1.200E+1	
834.96090	1.800E+1	
835.93750	1.800E+1	
836.91410	8.000E+0	
837.89060	8.000E+0	
838.86720	1.300E+1	
839.84380	1.100E+1	
840.82030	1.400E+1	
841.79690	1.400E+1	
842.77340	1.500E+1	
843.750	1.300E+1	
844.72660	1.800E+1	
845.70310	1.400E+1	
846.67970	1.300E+1	
847.65630	2.100E+1	
848.63280	1.600E+1	
849.60940	9.000E+0	
850.58590	1.400E+1	
851.56250	1.200E+1	
852.53910	1.600E+1	
853.51560	1.200E+1	
854.49220	1.700E+1	
855.46880	1.800E+1	
856.44530	1.200E+1	
857.42190	1.800E+1	
858.39840	1.000E+1	
859.3750	1.600E+1	
860.35160	1.400E+1	
861.32810	1.000E+1	
862.30470	2.100E+1	
863.28130	1.500E+1	
864.25780	1.300E+1	
865.23440	2.100E+1	
866.21090	1.900E+1	
867.18750	1.200E+1	
868.16410	9.000E+0	
869.14060	1.100E+1	
870.11720	1.200E+1	
871.09380	1.500E+1	
872.07030	1.100E+1	
873.04690	1.500E+1	
874.02340	1.200E+1	
875.0	1.500E+1	
875.97660	2.500E+1	
876.95310	1.700E+1	
877.92970	8.000E+0	
878.90630	1.600E+1	
879.88280	1.800E+1	
880.85940	2.000E+1	
881.83590	1.500E+1	
882.81250	1.500E+1	
883.78910	1.800E+1	
884.76560	1.100E+1	
885.74220	1.300E+1	
886.71880	1.100E+1	
887.69530	1.000E+1	
888.67190	1.700E+1	
889.64840	1.600E+1	
890.6250	1.500E+1	
891.60160	1.300E+1	
892.57810	1.500E+1	
893.55470	1.300E+1	
894.53130	1.300E+1	
895.50780	9.000E+0	
896.48440	9.000E+0	
897.46090	2.000E+1	
898.43750	9.000E+0	
899.41410	8.000E+0	
900.39060	1.100E+1	
901.36720	1.200E+1	
902.34380	1.300E+1	
903.32030	1.400E+1	
904.29690	1.300E+1	
905.27340	1.400E+1	
906.250	8.000E+0	
907.22660	1.400E+1	
908.20310	2.200E+1	
909.17970	1.200E+1	
910.15630	1.600E+1	
911.13280	1.500E+1	
912.10940	1.300E+1	
913.08590	1.200E+1	
914.06250	1.500E+1	
915.03910	9.000E+0	
916.01560	1.700E+1	
916.99220	1.100E+1	
917.96880	1.000E+1	
918.94530	2.500E+1	
919.92190	1.500E+1	
920.89840	1.700E+1	
921.8750	1.600E+1	
922.85160	1.300E+1	
923.82810	1.400E+1	
924.80470	1.200E+1	
925.78130	1.100E+1	
926.75780	2.100E+1	
927.73440	1.300E+1	
928.71090	1.100E+1	
929.68750	1.300E+1	
930.66410	1.200E+1	
931.64060	1.500E+1	
932.61720	1.500E+1	
933.59380	1.300E+1	
934.57030	1.000E+1	
935.54690	1.800E+1	
936.52340	8.000E+0	
937.50	1.600E+1	
938.47660	1.000E+1	
939.45310	1.000E+1	
940.42970	1.300E+1	
941.40630	1.800E+1	
942.38280	1.700E+1	
943.35940	1.500E+1	
944.33590	1.100E+1	
945.31250	8.000E+0	
946.28910	1.200E+1	
947.26560	1.200E+1	
948.24220	2.000E+1	
949.21880	1.800E+1	
950.19530	9.000E+0	
951.17190	1.600E+1	
952.14840	1.400E+1	
953.1250	1.100E+1	
954.10160	1.000E+1	
955.07810	1.900E+1	
956.05470	9.000E+0	
957.03130	1.300E+1	
958.00780	1.500E+1	
958.98440	1.400E+1	
959.96090	1.200E+1	
960.93750	9.000E+0	
961.91410	1.200E+1	
962.89060	7.000E+0	
963.86720	1.400E+1	
964.84380	1.500E+1	
965.82030	7.000E+0	
966.79690	1.800E+1	
967.77340	1.300E+1	
968.750	1.600E+1	
969.72660	1.200E+1	
970.70310	1.400E+1	
971.67970	1.800E+1	
972.65630	1.300E+1	
973.63280	1.800E+1	
974.60940	1.200E+1	
975.58590	8.000E+0	
976.56250	1.700E+1	
977.53910	9.000E+0	
978.51560	1.100E+1	
979.49220	1.400E+1	
980.46880	9.000E+0	
981.44530	1.800E+1	
982.42190	1.500E+1	
983.39840	1.700E+1	
984.3750	8.000E+0	
985.35160	6.000E+0	
986.32810	6.000E+0	
987.30470	1.500E+1	
988.28130	1.500E+1	
989.25780	1.300E+1	
990.23440	1.200E+1	
991.21090	1.000E+1	
992.18750	1.400E+1	
993.16410	9.000E+0	
994.14060	1.200E+1	
995.11720	1.400E+1	
996.09380	9.000E+0	
997.07030	1.700E+1	
998.04690	1.700E+1	
999.02340	1.200E+1	
